	wavelength	i
	 3000.00	-0.0001
	 3010.00	-0.0001
	 3020.00	-0.0001
	 3030.00	-0.0001
	 3040.00	-0.0001
	 3050.00	-0.0001
	 3060.00	-0.0001
	 3070.00	-0.0001
	 3080.00	-0.0001
	 3090.00	-0.0001
	 3100.00	-0.0001
	 3110.00	-0.0001
	 3120.00	-0.0001
	 3130.00	-0.0001
	 3140.00	-0.0001
	 3150.00	-0.0001
	 3160.00	-0.0001
	 3170.00	-0.0001
	 3180.00	 0.0000
	 3190.00	-0.0001
	 3200.00	-0.0001
	 3210.00	 0.0000
	 3220.00	-0.0001
	 3230.00	-0.0001
	 3240.00	 0.0000
	 3250.00	-0.0001
	 3260.00	-0.0001
	 3270.00	-0.0001
	 3280.00	-0.0001
	 3290.00	-0.0001
	 3300.00	-0.0001
	 3310.00	-0.0001
	 3320.00	-0.0001
	 3330.00	-0.0001
	 3340.00	-0.0001
	 3350.00	-0.0001
	 3360.00	-0.0001
	 3370.00	 0.0000
	 3380.00	-0.0001
	 3390.00	-0.0001
	 3400.00	 0.0000
	 3410.00	 0.0000
	 3420.00	-0.0001
	 3430.00	-0.0001
	 3440.00	-0.0001
	 3450.00	-0.0001
	 3460.00	-0.0001
	 3470.00	-0.0001
	 3480.00	-0.0001
	 3490.00	 0.0000
	 3500.00	-0.0001
	 3510.00	 0.0000
	 3520.00	-0.0001
	 3530.00	-0.0001
	 3540.00	 0.0000
	 3550.00	 0.0000
	 3560.00	-0.0001
	 3570.00	-0.0001
	 3580.00	 0.0000
	 3590.00	-0.0001
	 3600.00	-0.0001
	 3610.00	-0.0001
	 3620.00	 0.0000
	 3630.00	-0.0001
	 3640.00	-0.0001
	 3650.00	-0.0001
	 3660.00	-0.0001
	 3670.00	 0.0000
	 3680.00	-0.0001
	 3690.00	 0.0000
	 3700.00	-0.0001
	 3710.00	 0.0000
	 3720.00	 0.0000
	 3730.00	 0.0000
	 3740.00	 0.0000
	 3750.00	 0.0000
	 3760.00	 0.0000
	 3770.00	-0.0001
	 3780.00	-0.0002
	 3790.00	-0.0001
	 3800.00	-0.0001
	 3810.00	-0.0001
	 3820.00	-0.0001
	 3830.00	-0.0001
	 3840.00	 0.0000
	 3850.00	-0.0001
	 3860.00	-0.0001
	 3870.00	-0.0001
	 3880.00	-0.0001
	 3890.00	 0.0000
	 3900.00	-0.0001
	 3910.00	-0.0001
	 3920.00	-0.0001
	 3930.00	-0.0001
	 3940.00	 0.0000
	 3950.00	-0.0001
	 3960.00	-0.0001
	 3970.00	-0.0001
	 3980.00	 0.0000
	 3990.00	 0.0000
	 4000.00	-0.0001
	 4010.00	-0.0001
	 4020.00	-0.0001
	 4030.00	-0.0001
	 4040.00	-0.0001
	 4050.00	-0.0001
	 4060.00	 0.0000
	 4070.00	-0.0001
	 4080.00	-0.0001
	 4090.00	-0.0001
	 4100.00	 0.0000
	 4110.00	-0.0001
	 4120.00	-0.0001
	 4130.00	-0.0001
	 4140.00	-0.0001
	 4150.00	 0.0000
	 4160.00	-0.0001
	 4170.00	-0.0001
	 4180.00	-0.0001
	 4190.00	 0.0000
	 4200.00	-0.0001
	 4210.00	-0.0001
	 4220.00	-0.0001
	 4230.00	 0.0000
	 4240.00	-0.0001
	 4250.00	-0.0001
	 4260.00	-0.0001
	 4270.00	 0.0000
	 4280.00	-0.0001
	 4290.00	-0.0001
	 4300.00	-0.0001
	 4310.00	-0.0001
	 4320.00	 0.0000
	 4330.00	-0.0001
	 4340.00	-0.0001
	 4350.00	-0.0001
	 4360.00	-0.0001
	 4370.00	 0.0000
	 4380.00	-0.0001
	 4390.00	-0.0001
	 4400.00	-0.0001
	 4410.00	-0.0001
	 4420.00	-0.0001
	 4430.00	-0.0001
	 4440.00	-0.0001
	 4450.00	-0.0001
	 4460.00	-0.0001
	 4470.00	-0.0001
	 4480.00	-0.0001
	 4490.00	-0.0001
	 4500.00	-0.0001
	 4510.00	-0.0001
	 4520.00	-0.0001
	 4530.00	-0.0001
	 4540.00	-0.0001
	 4550.00	-0.0001
	 4560.00	-0.0001
	 4570.00	 0.0000
	 4580.00	 0.0000
	 4590.00	-0.0001
	 4600.00	 0.0000
	 4610.00	-0.0001
	 4620.00	-0.0001
	 4630.00	-0.0001
	 4640.00	-0.0001
	 4650.00	-0.0001
	 4660.00	-0.0001
	 4670.00	 0.0000
	 4680.00	 0.0000
	 4690.00	-0.0001
	 4700.00	-0.0001
	 4710.00	-0.0001
	 4720.00	-0.0001
	 4730.00	-0.0001
	 4740.00	-0.0001
	 4750.00	-0.0001
	 4760.00	-0.0001
	 4770.00	-0.0001
	 4780.00	-0.0001
	 4790.00	-0.0001
	 4800.00	-0.0001
	 4810.00	-0.0001
	 4820.00	-0.0001
	 4830.00	-0.0001
	 4840.00	-0.0001
	 4850.00	-0.0001
	 4860.00	-0.0001
	 4870.00	-0.0001
	 4880.00	-0.0001
	 4890.00	-0.0001
	 4900.00	-0.0001
	 4910.00	 0.0000
	 4920.00	 0.0000
	 4930.00	-0.0001
	 4940.00	-0.0001
	 4950.00	-0.0001
	 4960.00	-0.0001
	 4970.00	-0.0001
	 4980.00	-0.0001
	 4990.00	 0.0000
	 5000.00	-0.0001
	 5010.00	-0.0001
	 5020.00	-0.0001
	 5030.00	 0.0000
	 5040.00	-0.0001
	 5050.00	-0.0001
	 5060.00	-0.0001
	 5070.00	-0.0001
	 5080.00	-0.0001
	 5090.00	-0.0001
	 5100.00	-0.0001
	 5110.00	-0.0001
	 5120.00	-0.0001
	 5130.00	 0.0000
	 5140.00	-0.0001
	 5150.00	-0.0001
	 5160.00	-0.0001
	 5170.00	-0.0001
	 5180.00	-0.0001
	 5190.00	-0.0001
	 5200.00	-0.0001
	 5210.00	-0.0001
	 5220.00	-0.0001
	 5230.00	 0.0000
	 5240.00	-0.0001
	 5250.00	-0.0001
	 5260.00	-0.0001
	 5270.00	-0.0001
	 5280.00	-0.0001
	 5290.00	-0.0001
	 5300.00	-0.0001
	 5310.00	-0.0001
	 5320.00	-0.0001
	 5330.00	-0.0001
	 5340.00	-0.0001
	 5350.00	-0.0001
	 5360.00	-0.0001
	 5370.00	-0.0001
	 5380.00	-0.0001
	 5390.00	 0.0000
	 5400.00	-0.0001
	 5410.00	-0.0001
	 5420.00	 0.0000
	 5430.00	 0.0000
	 5440.00	-0.0001
	 5450.00	-0.0001
	 5460.00	-0.0001
	 5470.00	 0.0000
	 5480.00	-0.0001
	 5490.00	-0.0001
	 5500.00	-0.0001
	 5510.00	-0.0001
	 5520.00	-0.0001
	 5530.00	-0.0001
	 5540.00	-0.0001
	 5550.00	-0.0001
	 5560.00	-0.0001
	 5570.00	-0.0001
	 5580.00	 0.0000
	 5590.00	-0.0001
	 5600.00	-0.0001
	 5610.00	-0.0001
	 5620.00	-0.0001
	 5630.00	-0.0001
	 5640.00	-0.0001
	 5650.00	-0.0001
	 5660.00	-0.0001
	 5670.00	-0.0001
	 5680.00	-0.0001
	 5690.00	-0.0001
	 5700.00	-0.0001
	 5710.00	-0.0001
	 5720.00	-0.0001
	 5730.00	-0.0001
	 5740.00	-0.0001
	 5750.00	-0.0001
	 5760.00	-0.0001
	 5770.00	-0.0001
	 5780.00	-0.0001
	 5790.00	-0.0001
	 5800.00	-0.0001
	 5810.00	-0.0001
	 5820.00	-0.0001
	 5830.00	-0.0001
	 5840.00	-0.0001
	 5850.00	-0.0001
	 5860.00	-0.0001
	 5870.00	-0.0001
	 5880.00	-0.0001
	 5890.00	-0.0001
	 5900.00	-0.0001
	 5910.00	-0.0001
	 5920.00	-0.0001
	 5930.00	-0.0001
	 5940.00	 0.0000
	 5950.00	 0.0000
	 5960.00	-0.0001
	 5970.00	 0.0000
	 5980.00	-0.0001
	 5990.00	-0.0001
	 6000.00	-0.0001
	 6010.00	-0.0001
	 6020.00	-0.0001
	 6030.00	 0.0000
	 6040.00	-0.0001
	 6050.00	-0.0001
	 6060.00	-0.0001
	 6070.00	-0.0001
	 6080.00	-0.0001
	 6090.00	-0.0001
	 6100.00	-0.0001
	 6110.00	-0.0001
	 6120.00	-0.0001
	 6130.00	 0.0000
	 6140.00	 0.0000
	 6150.00	-0.0001
	 6160.00	-0.0001
	 6170.00	-0.0001
	 6180.00	-0.0001
	 6190.00	-0.0001
	 6200.00	-0.0001
	 6210.00	 0.0000
	 6220.00	-0.0001
	 6230.00	-0.0001
	 6240.00	-0.0001
	 6250.00	 0.0000
	 6260.00	 0.0000
	 6270.00	-0.0001
	 6280.00	-0.0001
	 6290.00	 0.0000
	 6300.00	 0.0000
	 6310.00	-0.0001
	 6320.00	-0.0001
	 6330.00	-0.0001
	 6340.00	-0.0001
	 6350.00	-0.0001
	 6360.00	-0.0001
	 6370.00	-0.0001
	 6380.00	 0.0000
	 6390.00	-0.0001
	 6400.00	-0.0001
	 6410.00	-0.0001
	 6420.00	 0.0000
	 6430.00	-0.0001
	 6440.00	-0.0001
	 6450.00	-0.0001
	 6460.00	-0.0001
	 6470.00	-0.0001
	 6480.00	-0.0001
	 6490.00	-0.0001
	 6500.00	-0.0001
	 6510.00	 0.0000
	 6520.00	 0.0000
	 6530.00	 0.0000
	 6540.00	-0.0001
	 6550.00	-0.0001
	 6560.00	-0.0001
	 6570.00	-0.0001
	 6580.00	-0.0001
	 6590.00	-0.0001
	 6600.00	-0.0001
	 6610.00	-0.0001
	 6620.00	-0.0001
	 6630.00	-0.0001
	 6640.00	 0.0000
	 6650.00	 0.0000
	 6660.00	-0.0001
	 6670.00	-0.0001
	 6680.00	 0.0000
	 6690.00	-0.0001
	 6700.00	 0.0000
	 6710.00	-0.0001
	 6720.00	 0.0000
	 6730.00	 0.0000
	 6740.00	-0.0001
	 6750.00	-0.0001
	 6760.00	-0.0001
	 6770.00	-0.0001
	 6780.00	-0.0001
	 6790.00	-0.0001
	 6800.00	-0.0001
	 6810.00	 0.0000
	 6820.00	-0.0001
	 6830.00	-0.0001
	 6840.00	-0.0001
	 6850.00	-0.0001
	 6860.00	-0.0001
	 6870.00	-0.0001
	 6880.00	-0.0001
	 6890.00	 0.0000
	 6900.00	 0.0000
	 6910.00	 0.0000
	 6920.00	 0.0000
	 6930.00	 0.0000
	 6940.00	 0.0001
	 6950.00	 0.0003
	 6960.00	 0.0004
	 6970.00	 0.0008
	 6980.00	 0.0013
	 6990.00	 0.0022
	 7000.00	 0.0035
	 7010.00	 0.0053
	 7020.00	 0.0079
	 7030.00	 0.0115
	 7040.00	 0.0161
	 7050.00	 0.0221
	 7060.00	 0.0296
	 7070.00	 0.0389
	 7080.00	 0.0500
	 7090.00	 0.0629
	 7100.00	 0.0779
	 7110.00	 0.0953
	 7120.00	 0.1142
	 7130.00	 0.1351
	 7140.00	 0.1581
	 7150.00	 0.1827
	 7160.00	 0.2085
	 7170.00	 0.2363
	 7180.00	 0.2647
	 7190.00	 0.2940
	 7200.00	 0.3242
	 7210.00	 0.3557
	 7220.00	 0.3869
	 7230.00	 0.4178
	 7240.00	 0.4495
	 7250.00	 0.4794
	 7260.00	 0.5110
	 7270.00	 0.5414
	 7280.00	 0.5709
	 7290.00	 0.5999
	 7300.00	 0.6271
	 7310.00	 0.6547
	 7320.00	 0.6799
	 7330.00	 0.7048
	 7340.00	 0.7291
	 7350.00	 0.7515
	 7360.00	 0.7720
	 7370.00	 0.7946
	 7380.00	 0.8121
	 7390.00	 0.8314
	 7400.00	 0.8475
	 7410.00	 0.8612
	 7420.00	 0.8778
	 7430.00	 0.8905
	 7440.00	 0.9014
	 7450.00	 0.9129
	 7460.00	 0.9205
	 7470.00	 0.9306
	 7480.00	 0.9392
	 7490.00	 0.9443
	 7500.00	 0.9529
	 7510.00	 0.9569
	 7520.00	 0.9620
	 7530.00	 0.9656
	 7540.00	 0.9689
	 7550.00	 0.9726
	 7560.00	 0.9733
	 7570.00	 0.9747
	 7580.00	 0.9787
	 7590.00	 0.9786
	 7600.00	 0.9812
	 7610.00	 0.9807
	 7620.00	 0.9807
	 7630.00	 0.9815
	 7640.00	 0.9817
	 7650.00	 0.9805
	 7660.00	 0.9827
	 7670.00	 0.9786
	 7680.00	 0.9796
	 7690.00	 0.9815
	 7700.00	 0.9817
	 7710.00	 0.9828
	 7720.00	 0.9831
	 7730.00	 0.9845
	 7740.00	 0.9832
	 7750.00	 0.9835
	 7760.00	 0.9862
	 7770.00	 0.9840
	 7780.00	 0.9866
	 7790.00	 0.9863
	 7800.00	 0.9888
	 7810.00	 0.9866
	 7820.00	 0.9894
	 7830.00	 0.9930
	 7840.00	 0.9920
	 7850.00	 0.9942
	 7860.00	 0.9928
	 7870.00	 0.9951
	 7880.00	 0.9954
	 7890.00	 0.9954
	 7900.00	 0.9978
	 7910.00	 0.9973
	 7920.00	 1.0000
	 7930.00	 0.9994
	 7940.00	 0.9976
	 7950.00	 0.9972
	 7960.00	 0.9985
	 7970.00	 0.9982
	 7980.00	 0.9963
	 7990.00	 0.9952
	 8000.00	 0.9938
	 8010.00	 0.9922
	 8020.00	 0.9907
	 8030.00	 0.9911
	 8040.00	 0.9886
	 8050.00	 0.9858
	 8060.00	 0.9852
	 8070.00	 0.9856
	 8080.00	 0.9810
	 8090.00	 0.9791
	 8100.00	 0.9769
	 8110.00	 0.9718
	 8120.00	 0.9736
	 8130.00	 0.9678
	 8140.00	 0.9644
	 8150.00	 0.9621
	 8160.00	 0.9620
	 8170.00	 0.9566
	 8180.00	 0.9542
	 8190.00	 0.9520
	 8200.00	 0.9478
	 8210.00	 0.9465
	 8220.00	 0.9468
	 8230.00	 0.9403
	 8240.00	 0.9405
	 8250.00	 0.9386
	 8260.00	 0.9375
	 8270.00	 0.9328
	 8280.00	 0.9267
	 8290.00	 0.9308
	 8300.00	 0.9298
	 8310.00	 0.9319
	 8320.00	 0.9274
	 8330.00	 0.9278
	 8340.00	 0.9262
	 8350.00	 0.9260
	 8360.00	 0.9236
	 8370.00	 0.9246
	 8380.00	 0.9269
	 8390.00	 0.9278
	 8400.00	 0.9270
	 8410.00	 0.9297
	 8420.00	 0.9306
	 8430.00	 0.9326
	 8440.00	 0.9348
	 8450.00	 0.9308
	 8460.00	 0.9371
	 8470.00	 0.9424
	 8480.00	 0.9443
	 8490.00	 0.9481
	 8500.00	 0.9486
	 8510.00	 0.9606
	 8520.00	 0.9539
	 8530.00	 0.9588
	 8540.00	 0.9578
	 8550.00	 0.9630
	 8560.00	 0.9706
	 8570.00	 0.9766
	 8580.00	 0.9691
	 8590.00	 0.9729
	 8600.00	 0.9779
	 8610.00	 0.9887
	 8620.00	 0.9913
	 8630.00	 0.9930
	 8640.00	 0.9948
	 8650.00	 0.9968
	 8660.00	 0.9975
	 8670.00	 0.9983
	 8680.00	 0.9978
	 8690.00	 0.9970
	 8700.00	 0.9951
	 8710.00	 0.9924
	 8720.00	 0.9881
	 8730.00	 0.9836
	 8740.00	 0.9773
	 8750.00	 0.9703
	 8760.00	 0.9619
	 8770.00	 0.9510
	 8780.00	 0.9385
	 8790.00	 0.9250
	 8800.00	 0.9083
	 8810.00	 0.8901
	 8820.00	 0.8702
	 8830.00	 0.8491
	 8840.00	 0.8263
	 8850.00	 0.8024
	 8860.00	 0.7754
	 8870.00	 0.7485
	 8880.00	 0.7210
	 8890.00	 0.6922
	 8900.00	 0.6625
	 8910.00	 0.6324
	 8920.00	 0.6027
	 8930.00	 0.5728
	 8940.00	 0.5430
	 8950.00	 0.5120
	 8960.00	 0.4834
	 8970.00	 0.4551
	 8980.00	 0.4268
	 8990.00	 0.3998
	 9000.00	 0.3744
	 9010.00	 0.3493
	 9020.00	 0.3264
	 9030.00	 0.3040
	 9040.00	 0.2836
	 9050.00	 0.2642
	 9060.00	 0.2463
	 9070.00	 0.2293
	 9080.00	 0.2128
	 9090.00	 0.1980
	 9100.00	 0.1842
	 9110.00	 0.1716
	 9120.00	 0.1592
	 9130.00	 0.1481
	 9140.00	 0.1376
	 9150.00	 0.1279
	 9160.00	 0.1192
	 9170.00	 0.1111
	 9180.00	 0.1036
	 9190.00	 0.0970
	 9200.00	 0.0899
	 9210.00	 0.0837
	 9220.00	 0.0785
	 9230.00	 0.0727
	 9240.00	 0.0684
	 9250.00	 0.0642
	 9260.00	 0.0600
	 9270.00	 0.0561
	 9280.00	 0.0526
	 9290.00	 0.0494
	 9300.00	 0.0469
	 9310.00	 0.0435
	 9320.00	 0.0406
	 9330.00	 0.0384
	 9340.00	 0.0365
	 9350.00	 0.0337
	 9360.00	 0.0325
	 9370.00	 0.0301
	 9380.00	 0.0285
	 9390.00	 0.0266
	 9400.00	 0.0257
	 9410.00	 0.0247
	 9420.00	 0.0228
	 9430.00	 0.0215
	 9440.00	 0.0201
	 9450.00	 0.0196
	 9460.00	 0.0176
	 9470.00	 0.0173
	 9480.00	 0.0163
	 9490.00	 0.0156
	 9500.00	 0.0144
	 9510.00	 0.0143
	 9520.00	 0.0133
	 9530.00	 0.0117
	 9540.00	 0.0118
	 9550.00	 0.0115
	 9560.00	 0.0112
	 9570.00	 0.0105
	 9580.00	 0.0100
	 9590.00	 0.0095
	 9600.00	 0.0086
	 9610.00	 0.0091
	 9620.00	 0.0080
	 9630.00	 0.0075
	 9640.00	 0.0072
	 9650.00	 0.0068
	 9660.00	 0.0074
	 9670.00	 0.0070
	 9680.00	 0.0058
	 9690.00	 0.0065
	 9700.00	 0.0055
	 9710.00	 0.0052
	 9720.00	 0.0051
	 9730.00	 0.0050
	 9740.00	 0.0046
	 9750.00	 0.0043
	 9760.00	 0.0046
	 9770.00	 0.0044
	 9780.00	 0.0044
	 9790.00	 0.0035
	 9800.00	 0.0034
	 9810.00	 0.0037
	 9820.00	 0.0026
	 9830.00	 0.0033
	 9840.00	 0.0034
	 9850.00	 0.0028
	 9860.00	 0.0034
	 9870.00	 0.0029
	 9880.00	 0.0024
	 9890.00	 0.0022
	 9900.00	 0.0022
	 9910.00	 0.0018
	 9920.00	 0.0025
	 9930.00	 0.0022
	 9940.00	 0.0021
	 9950.00	 0.0022
	 9960.00	 0.0019
	 9970.00	 0.0020
	 9980.00	 0.0018
	 9990.00	 0.0015
	10000.00	 0.0011
	10010.00	 0.0018
	10020.00	 0.0012
	10030.00	 0.0018
	10040.00	 0.0014
	10050.00	 0.0013
	10060.00	 0.0012
	10070.00	 0.0011
	10080.00	 0.0013
	10090.00	 0.0006
	10100.00	 0.0015
	10110.00	 0.0016
	10120.00	 0.0013
	10130.00	 0.0010
	10140.00	 0.0006
	10150.00	 0.0012
	10160.00	 0.0013
	10170.00	 0.0005
	10180.00	 0.0010
	10190.00	 0.0008
	10200.00	 0.0010
	10210.00	 0.0010
	10220.00	 0.0005
	10230.00	 0.0010
	10240.00	 0.0003
	10250.00	 0.0010
	10260.00	 0.0006
	10270.00	 0.0000
	10280.00	 0.0001
	10290.00	 0.0010
	10300.00	 0.0008
	10310.00	 0.0006
	10320.00	 0.0002
	10330.00	 0.0011
	10340.00	 0.0006
	10350.00	 0.0010
	10360.00	 0.0000
	10370.00	 0.0003
	10380.00	 0.0001
	10390.00	 0.0000
	10400.00	-0.0002
	10410.00	 0.0003
	10420.00	 0.0001
	10430.00	 0.0002
	10440.00	-0.0004
	10450.00	 0.0008
	10460.00	 0.0001
	10470.00	 0.0001
	10480.00	-0.0001
	10490.00	-0.0001
	10500.00	 0.0002
	10510.00	 0.0007
	10520.00	 0.0001
	10530.00	-0.0001
	10540.00	-0.0006
	10550.00	-0.0004
	10560.00	-0.0003
	10570.00	-0.0006
	10580.00	-0.0002
	10590.00	 0.0000
	10600.00	 0.0002
	10610.00	-0.0005
	10620.00	 0.0006
	10630.00	-0.0003
	10640.00	-0.0008
	10650.00	-0.0001
	10660.00	 0.0000
	10670.00	-0.0002
	10680.00	-0.0008
	10690.00	 0.0003
	10700.00	 0.0001
	10710.00	 0.0001
	10720.00	-0.0006
	10730.00	-0.0003
	10740.00	-0.0006
	10750.00	-0.0006
	10760.00	 0.0011
	10770.00	 0.0003
	10780.00	-0.0003
	10790.00	-0.0004
	10800.00	-0.0008
	10810.00	 0.0002
	10820.00	 0.0004
	10830.00	 0.0002
	10840.00	-0.0004
	10850.00	 0.0002
	10860.00	 0.0000
	10870.00	-0.0005
	10880.00	-0.0007
	10890.00	 0.0005
	10900.00	-0.0002
	10910.00	-0.0004
	10920.00	-0.0011
	10930.00	 0.0002
	10940.00	 0.0006
	10950.00	 0.0001
	10960.00	-0.0004
	10970.00	-0.0010
	10980.00	 0.0001
	10990.00	-0.0001
	11000.00	-0.0003
	11010.00	-0.0006
	11020.00	-0.0008
	11030.00	 0.0000
	11040.00	-0.0004
	11050.00	 0.0003
	11060.00	 0.0004
	11070.00	-0.0003
	11080.00	-0.0008
	11090.00	-0.0009
	11100.00	-0.0003
	11110.00	 0.0006
	11120.00	-0.0004
	11130.00	-0.0008
	11140.00	-0.0004
	11150.00	-0.0001
	11160.00	-0.0001
	11170.00	-0.0004
	11180.00	 0.0001
	11190.00	 0.0001
	11200.00	-0.0006
	11210.00	-0.0001
	11220.00	-0.0008
	11230.00	-0.0006
	11240.00	-0.0001
	11250.00	-0.0001
	11260.00	-0.0010
	11270.00	-0.0006
	11280.00	 0.0003
	11290.00	 0.0009
	11300.00	-0.0004
	11310.00	 0.0006
	11320.00	-0.0004
	11330.00	-0.0011
	11340.00	-0.0018
	11350.00	-0.0016
	11360.00	-0.0015
	11370.00	-0.0008
	11380.00	-0.0003
	11390.00	-0.0001
	11400.00	-0.0011
	11410.00	 0.0003
	11420.00	-0.0011
	11430.00	 0.0003
	11440.00	-0.0004
	11450.00	-0.0010
	11460.00	 0.0000
	11470.00	 0.0000
	11480.00	 0.0011
	11490.00	 0.0003
	11500.00	-0.0004
	11510.00	 0.0002
	11520.00	 0.0001
	11530.00	 0.0001
	11540.00	 0.0003
	11550.00	-0.0001
	11560.00	 0.0001
	11570.00	-0.0010
	11580.00	-0.0018
	11590.00	-0.0015
	11600.00	-0.0013
	11610.00	-0.0006
	11620.00	-0.0006
	11630.00	-0.0001
	11640.00	-0.0008
	11650.00	-0.0006
	11660.00	-0.0010
	11670.00	-0.0004
	11680.00	-0.0006
	11690.00	 0.0001
	11700.00	-0.0001
	11710.00	-0.0004
	11720.00	-0.0003
	11730.00	-0.0008
	11740.00	-0.0006
	11750.00	-0.0013
	11760.00	 0.0004
	11770.00	 0.0000
	11780.00	-0.0003
	11790.00	 0.0009
	11800.00	 0.0001
	11810.00	-0.0001
	11820.00	-0.0003
	11830.00	-0.0002
	11840.00	-0.0001
	11850.00	-0.0002
	11860.00	-0.0006
	11870.00	-0.0014
	11880.00	-0.0022
	11890.00	-0.0029
	11900.00	-0.0022
	11910.00	 0.0000
	11920.00	-0.0002
	11930.00	-0.0006
	11940.00	-0.0016
	11950.00	-0.0003
	11960.00	-0.0006
	11970.00	-0.0003
	11980.00	-0.0008
	11990.00	-0.0005
	12000.00	-0.0003
